LabVIEW Measurement,
Writer_Version,2
Reader_Version,2
Separator,Comma
Decimal_Separator,.
Multi_Headings,No
X_Columns,One
Time_Pref,Absolute
Operator,localuser
Date,2024/07/15
Time,10:21:52.6016637999996888757
***End_of_Header***,
,
Channels,1,
Samples,5000,
Date,2024/07/15,
Time,10:21:52.6016637999996888757,
Y_Unit_Label,Volts,
X_Dimension,Time,
X0,0.0000000000000000E+0,
Delta_X,0.001000,
***End_of_Header***,,
X_Value,Voltage,Comment
0.000000,-0.147983
0.001000,-0.144748
0.002000,-0.142160
0.003000,-0.139249
0.004000,-0.137955
0.005000,-0.137632
0.006000,-0.137955
0.007000,-0.138926
0.008000,-0.143454
0.009000,-0.152188
0.010000,-0.159952
0.011000,-0.165451
0.012000,-0.168362
0.013000,-0.167715
0.014000,-0.164157
0.015000,-0.156717
0.016000,-0.149600
0.017000,-0.145719
0.018000,-0.142484
0.019000,-0.140220
0.020000,-0.137308
0.021000,-0.136338
0.022000,-0.136661
0.023000,-0.136661
0.024000,-0.138602
0.025000,-0.144748
0.026000,-0.153482
0.027000,-0.160599
0.028000,-0.165451
0.029000,-0.167715
0.030000,-0.165451
0.031000,-0.159952
0.032000,-0.152835
0.033000,-0.146042
0.034000,-0.142807
0.035000,-0.139249
0.036000,-0.137308
0.037000,-0.135691
0.038000,-0.135044
0.039000,-0.134397
0.040000,-0.135691
0.041000,-0.138602
0.042000,-0.146366
0.043000,-0.154776
0.044000,-0.161246
0.045000,-0.164804
0.046000,-0.166421
0.047000,-0.162863
0.048000,-0.156717
0.049000,-0.148954
0.050000,-0.143778
0.051000,-0.140543
0.052000,-0.137632
0.053000,-0.135691
0.054000,-0.133750
0.055000,-0.133103
0.056000,-0.134073
0.057000,-0.135367
0.058000,-0.139249
0.059000,-0.148630
0.060000,-0.156070
0.061000,-0.161569
0.062000,-0.163834
0.063000,-0.163834
0.064000,-0.159952
0.065000,-0.153159
0.066000,-0.145395
0.067000,-0.141190
0.068000,-0.138926
0.069000,-0.135691
0.070000,-0.133427
0.071000,-0.131486
0.072000,-0.132780
0.073000,-0.132780
0.074000,-0.134720
0.075000,-0.140867
0.076000,-0.149600
0.077000,-0.157364
0.078000,-0.161893
0.079000,-0.163510
0.080000,-0.161893
0.081000,-0.156070
0.082000,-0.149277
0.083000,-0.142484
0.084000,-0.140220
0.085000,-0.136014
0.086000,-0.134073
0.087000,-0.132133
0.088000,-0.131162
0.089000,-0.130839
0.090000,-0.132456
0.091000,-0.135044
0.092000,-0.142807
0.093000,-0.151218
0.094000,-0.157687
0.095000,-0.161246
0.096000,-0.162216
0.097000,-0.159628
0.098000,-0.153159
0.099000,-0.145072
0.100000,-0.140220
0.101000,-0.137308
0.102000,-0.134397
0.103000,-0.132133
0.104000,-0.130515
0.105000,-0.129545
0.106000,-0.130515
0.107000,-0.132133
0.108000,-0.136014
0.109000,-0.145072
0.110000,-0.152835
0.111000,-0.158011
0.112000,-0.160922
0.113000,-0.160275
0.114000,-0.156717
0.115000,-0.149600
0.116000,-0.142484
0.117000,-0.138279
0.118000,-0.135367
0.119000,-0.132780
0.120000,-0.130192
0.121000,-0.129221
0.122000,-0.128898
0.123000,-0.129868
0.124000,-0.130839
0.125000,-0.136985
0.126000,-0.146366
0.127000,-0.154129
0.128000,-0.158334
0.129000,-0.160599
0.130000,-0.158658
0.131000,-0.152835
0.132000,-0.146042
0.133000,-0.139573
0.134000,-0.136338
0.135000,-0.133750
0.136000,-0.130192
0.137000,-0.128574
0.138000,-0.127604
0.139000,-0.127604
0.140000,-0.129221
0.141000,-0.131809
0.142000,-0.139896
0.143000,-0.147983
0.144000,-0.155100
0.145000,-0.158658
0.146000,-0.159628
0.147000,-0.156394
0.148000,-0.150247
0.149000,-0.141837
0.150000,-0.136985
0.151000,-0.134397
0.152000,-0.130839
0.153000,-0.129221
0.154000,-0.126633
0.155000,-0.126310
0.156000,-0.127280
0.157000,-0.128574
0.158000,-0.132780
0.159000,-0.142160
0.160000,-0.149600
0.161000,-0.154453
0.162000,-0.158011
0.163000,-0.157364
0.164000,-0.154129
0.165000,-0.146689
0.166000,-0.138926
0.167000,-0.134720
0.168000,-0.132456
0.169000,-0.129221
0.170000,-0.126957
0.171000,-0.125986
0.172000,-0.125663
0.173000,-0.126957
0.174000,-0.127927
0.175000,-0.133427
0.176000,-0.143454
0.177000,-0.151218
0.178000,-0.155100
0.179000,-0.157687
0.180000,-0.156070
0.181000,-0.149924
0.182000,-0.143131
0.183000,-0.136338
0.184000,-0.132780
0.185000,-0.130515
0.186000,-0.127604
0.187000,-0.125663
0.188000,-0.125016
0.189000,-0.124693
0.190000,-0.126310
0.191000,-0.128574
0.192000,-0.136985
0.193000,0.346293
0.194000,0.338206
0.195000,0.320091
0.196000,0.290978
0.197000,0.186494
0.198000,0.026049
0.199000,-0.156394
0.200000,-0.266376
0.201000,-0.328808
0.202000,-0.360832
0.203000,-0.358891
0.204000,-0.344982
0.205000,-0.312957
0.206000,-0.259907
0.207000,-0.205886
0.208000,-0.092345
0.209000,0.101743
0.210000,0.249896
0.211000,0.312651
0.212000,0.307152
0.213000,0.246985
0.214000,0.143148
0.215000,-0.032501
0.216000,-0.211708
0.217000,-0.295813
0.218000,-0.345952
0.219000,-0.364067
0.220000,-0.356627
0.221000,-0.338836
0.222000,-0.299371
0.223000,-0.244380
0.224000,-0.178067
0.225000,-0.039294
0.226000,0.150265
0.227000,0.283538
0.228000,0.315886
0.229000,0.301006
0.230000,0.226929
0.231000,0.071012
0.232000,-0.090080
0.233000,-0.252467
0.234000,-0.318133
0.235000,-0.355657
0.236000,-0.361479
0.237000,-0.352745
0.238000,-0.322985
0.239000,-0.284168
0.240000,-0.224971
0.241000,-0.146689
0.242000,0.043193
0.243000,0.202021
0.244000,0.305534
0.245000,0.313298
0.246000,0.287096
0.247000,0.185524
0.248000,0.022167
0.249000,-0.158011
0.250000,-0.268641
0.251000,-0.332043
0.252000,-0.362126
0.253000,-0.360185
0.254000,-0.346599
0.255000,-0.315222
0.256000,-0.260554
0.257000,-0.205886
0.258000,-0.092021
0.259000,0.099155
0.260000,0.251514
0.261000,0.315886
0.262000,0.307475
0.263000,0.246661
0.264000,0.144118
0.265000,-0.032825
0.266000,-0.212032
0.267000,-0.296136
0.268000,-0.345305
0.269000,-0.363744
0.270000,-0.357274
0.271000,-0.338512
0.272000,-0.299371
0.273000,-0.243409
0.274000,-0.178390
0.275000,-0.038647
0.276000,0.155440
0.277000,0.286126
0.278000,0.314915
0.279000,0.301976
0.280000,0.223694
0.281000,0.070365
0.282000,-0.090080
0.283000,-0.252143
0.284000,-0.315545
0.285000,-0.355010
0.286000,-0.362126
0.287000,-0.351128
0.288000,-0.323956
0.289000,-0.285138
0.290000,-0.223354
0.291000,-0.145719
0.292000,0.043517
0.293000,0.204286
0.294000,0.307152
0.295000,0.315239
0.296000,0.288067
0.297000,0.186171
0.298000,0.025402
0.299000,-0.158334
0.300000,-0.271552
0.301000,-0.330749
0.302000,-0.362450
0.303000,-0.360509
0.304000,-0.347893
0.305000,-0.314575
0.306000,-0.259907
0.307000,-0.205562
0.308000,-0.093315
0.309000,0.100772
0.310000,0.249573
0.311000,0.314592
0.312000,0.307475
0.313000,0.246338
0.314000,0.144118
0.315000,-0.033148
0.316000,-0.212679
0.317000,-0.297107
0.318000,-0.342717
0.319000,-0.363744
0.320000,-0.356627
0.321000,-0.338836
0.322000,-0.300989
0.323000,-0.244380
0.324000,-0.178067
0.325000,-0.039294
0.326000,0.156734
0.327000,0.284185
0.328000,0.315562
0.329000,0.303917
0.330000,0.224018
0.331000,0.072306
0.332000,-0.089433
0.333000,-0.252467
0.334000,-0.314898
0.335000,-0.354363
0.336000,-0.362126
0.337000,-0.352098
0.338000,-0.323632
0.339000,-0.286109
0.340000,-0.222707
0.341000,-0.147013
0.342000,0.043193
0.343000,0.203639
0.344000,0.305211
0.345000,0.311357
0.346000,0.286773
0.347000,0.184553
0.348000,0.021520
0.349000,-0.156717
0.350000,-0.267023
0.351000,-0.328484
0.352000,-0.362450
0.353000,-0.362126
0.354000,-0.347893
0.355000,-0.313928
0.356000,-0.261524
0.357000,-0.207180
0.358000,-0.092992
0.359000,0.100449
0.360000,0.244720
0.361000,0.314915
0.362000,0.308122
0.363000,0.247632
0.364000,0.143472
0.365000,-0.032178
0.366000,-0.212679
0.367000,-0.297430
0.368000,-0.344335
0.369000,-0.363097
0.370000,-0.357921
0.371000,-0.338512
0.372000,-0.300342
0.373000,-0.244703
0.374000,-0.178714
0.375000,-0.040265
0.376000,0.155117
0.377000,0.283538
0.378000,0.317503
0.379000,0.301976
0.380000,0.226606
0.381000,0.069718
0.382000,-0.087816
0.383000,-0.253761
0.384000,-0.314898
0.385000,-0.356304
0.386000,-0.360509
0.387000,-0.351451
0.388000,-0.323956
0.389000,-0.285785
0.390000,-0.225618
0.391000,-0.146042
0.392000,0.043193
0.393000,0.198463
0.394000,0.304241
0.395000,0.314592
0.396000,0.288390
0.397000,0.184553
0.398000,0.023461
0.399000,-0.158334
0.400000,-0.271229
0.401000,-0.332043
0.402000,-0.359215
0.403000,-0.359862
0.404000,-0.347570
0.405000,-0.312957
0.406000,-0.261201
0.407000,-0.206856
0.408000,-0.092668
0.409000,0.101419
0.410000,0.244720
0.411000,0.314915
0.412000,0.309093
0.413000,0.246661
0.414000,0.143472
0.415000,-0.032501
0.416000,-0.212355
0.417000,-0.296460
0.418000,-0.344982
0.419000,-0.361803
0.420000,-0.356627
0.421000,-0.339806
0.422000,-0.300989
0.423000,-0.244056
0.424000,-0.179037
0.425000,-0.039618
0.426000,0.153176
0.427000,0.286773
0.428000,0.317180
0.429000,0.301329
0.430000,0.226282
0.431000,0.070365
0.432000,-0.091698
0.433000,-0.252143
0.434000,-0.314251
0.435000,-0.355333
0.436000,-0.361803
0.437000,-0.349187
0.438000,-0.322662
0.439000,-0.284168
0.440000,-0.226912
0.441000,-0.149277
0.442000,0.041899
0.443000,0.198786
0.444000,0.305858
0.445000,0.312651
0.446000,0.288714
0.447000,0.185524
0.448000,0.025402
0.449000,-0.159952
0.450000,-0.271876
0.451000,-0.329131
0.452000,-0.361803
0.453000,-0.358891
0.454000,-0.348864
0.455000,-0.312957
0.456000,-0.258936
0.457000,-0.206533
0.458000,-0.094609
0.459000,0.099478
0.460000,0.245691
0.461000,0.315562
0.462000,0.308122
0.463000,0.247632
0.464000,0.145089
0.465000,-0.033471
0.466000,-0.212032
0.467000,-0.296783
0.468000,-0.343364
0.469000,-0.363097
0.470000,-0.356627
0.471000,-0.339806
0.472000,-0.299048
0.473000,-0.244056
0.474000,-0.179037
0.475000,-0.039294
0.476000,0.156411
0.477000,0.283861
0.478000,0.317503
0.479000,0.301006
0.480000,0.225312
0.481000,0.070689
0.482000,-0.089757
0.483000,-0.253437
0.484000,-0.313604
0.485000,-0.356950
0.486000,-0.362450
0.487000,-0.352422
0.488000,-0.325573
0.489000,-0.286756
0.490000,-0.224001
0.491000,-0.145395
0.492000,0.043517
0.493000,0.198139
0.494000,0.309093
0.495000,0.312651
0.496000,0.286126
0.497000,0.183583
0.498000,0.025078
0.499000,-0.159305
0.500000,-0.268964
0.501000,-0.331072
0.502000,-0.361803
0.503000,-0.358568
0.504000,-0.349510
0.505000,-0.312634
0.506000,-0.262495
0.507000,-0.207503
0.508000,-0.095256
0.509000,0.096567
0.510000,0.245691
0.511000,0.314268
0.512000,0.307475
0.513000,0.246661
0.514000,0.143472
0.515000,-0.032501
0.516000,-0.212355
0.517000,-0.297430
0.518000,-0.345305
0.519000,-0.363097
0.520000,-0.356627
0.521000,-0.340130
0.522000,-0.299695
0.523000,-0.242762
0.524000,-0.179037
0.525000,-0.039294
0.526000,0.156411
0.527000,0.283214
0.528000,0.316856
0.529000,0.301329
0.530000,0.225635
0.531000,0.071983
0.532000,-0.090727
0.533000,-0.251820
0.534000,-0.314898
0.535000,-0.355657
0.536000,-0.362773
0.537000,-0.352422
0.538000,-0.320074
0.539000,-0.283844
0.540000,-0.225942
0.541000,-0.149600
0.542000,0.040929
0.543000,0.197816
0.544000,0.306505
0.545000,0.315886
0.546000,0.289684
0.547000,0.187141
0.548000,0.025402
0.549000,-0.159305
0.550000,-0.269935
0.551000,-0.331072
0.552000,-0.361156
0.553000,-0.358891
0.554000,-0.347246
0.555000,-0.312310
0.556000,-0.258289
0.557000,-0.205239
0.558000,-0.092992
0.559000,0.098508
0.560000,0.245691
0.561000,0.313298
0.562000,0.306181
0.563000,0.246661
0.564000,0.142501
0.565000,-0.033471
0.566000,-0.212032
0.567000,-0.295489
0.568000,-0.344982
0.569000,-0.364391
0.570000,-0.357274
0.571000,-0.339483
0.572000,-0.300018
0.573000,-0.244703
0.574000,-0.179037
0.575000,-0.039618
0.576000,0.150912
0.577000,0.283861
0.578000,0.316856
0.579000,0.301653
0.580000,0.225635
0.581000,0.071659
0.582000,-0.090404
0.583000,-0.253114
0.584000,-0.316192
0.585000,-0.353392
0.586000,-0.362450
0.587000,-0.355010
0.588000,-0.322015
0.589000,-0.284168
0.590000,-0.225295
0.591000,-0.147336
0.592000,0.042546
0.593000,0.201698
0.594000,0.308769
0.595000,0.313298
0.596000,0.288067
0.597000,0.182289
0.598000,0.024108
0.599000,-0.158658
0.600000,-0.269935
0.601000,-0.331072
0.602000,-0.362773
0.603000,-0.359215
0.604000,-0.346599
0.605000,-0.309723
0.606000,-0.258936
0.607000,-0.204268
0.608000,-0.093962
0.609000,0.099155
0.610000,0.242456
0.611000,0.313298
0.612000,0.307799
0.613000,0.246338
0.614000,0.143795
0.615000,-0.032178
0.616000,-0.210738
0.617000,-0.295813
0.618000,-0.344011
0.619000,-0.364391
0.620000,-0.356627
0.621000,-0.339159
0.622000,-0.299048
0.623000,-0.244703
0.624000,-0.178067
0.625000,-0.038647
0.626000,0.155764
0.627000,0.284508
0.628000,0.316856
0.629000,0.301653
0.630000,0.224988
0.631000,0.071659
0.632000,-0.090080
0.633000,-0.252143
0.634000,-0.315545
0.635000,-0.355980
0.636000,-0.361479
0.637000,-0.353392
0.638000,-0.322015
0.639000,-0.286756
0.640000,-0.223677
0.641000,-0.147660
0.642000,0.045781
0.643000,0.196846
0.644000,0.308446
0.645000,0.312328
0.646000,0.291301
0.647000,0.184877
0.648000,0.024755
0.649000,-0.159628
0.650000,-0.269611
0.651000,-0.331719
0.652000,-0.363097
0.653000,-0.359862
0.654000,-0.347570
0.655000,-0.315545
0.656000,-0.262495
0.657000,-0.206209
0.658000,-0.091374
0.659000,0.099155
0.660000,0.246661
0.661000,0.315239
0.662000,0.307475
0.663000,0.246338
0.664000,0.144442
0.665000,-0.032178
0.666000,-0.212355
0.667000,-0.297107
0.668000,-0.344658
0.669000,-0.365037
0.670000,-0.355010
0.671000,-0.338512
0.672000,-0.300018
0.673000,-0.245997
0.674000,-0.178714
0.675000,-0.037677
0.676000,0.151558
0.677000,0.283214
0.678000,0.316209
0.679000,0.301006
0.680000,0.225959
0.681000,0.072953
0.682000,-0.090727
0.683000,-0.252467
0.684000,-0.315869
0.685000,-0.356304
0.686000,-0.360509
0.687000,-0.350804
0.688000,-0.322338
0.689000,-0.283844
0.690000,-0.224648
0.691000,-0.146366
0.692000,-0.339806
0.693000,-0.304547
0.694000,-0.292255
0.695000,-0.283197
0.696000,-0.275434
0.697000,-0.266053
0.698000,-0.255378
0.699000,-0.244703
0.700000,-0.237587
0.701000,-0.233058
0.702000,-0.228853
0.703000,-0.225618
0.704000,-0.223030
0.705000,-0.221089
0.706000,-0.220766
0.707000,-0.222060
0.708000,-0.224648
0.709000,-0.231764
0.710000,-0.237263
0.711000,-0.241468
0.712000,-0.241792
0.713000,-0.239204
0.714000,-0.234028
0.715000,-0.225295
0.716000,-0.217208
0.717000,-0.212355
0.718000,-0.209121
0.719000,-0.205562
0.720000,-0.202974
0.721000,-0.201357
0.722000,-0.200710
0.723000,-0.200710
0.724000,-0.202651
0.725000,-0.207827
0.726000,-0.216237
0.727000,-0.222707
0.728000,-0.225618
0.729000,-0.226912
0.730000,-0.224001
0.731000,-0.217531
0.732000,-0.209768
0.733000,-0.202651
0.734000,-0.199416
0.735000,-0.195534
0.736000,-0.193594
0.737000,-0.191329
0.738000,-0.189712
0.739000,-0.189388
0.740000,-0.190682
0.741000,-0.192300
0.742000,-0.199740
0.743000,-0.208474
0.744000,-0.213649
0.745000,-0.216237
0.746000,-0.217531
0.747000,-0.213002
0.748000,-0.206856
0.749000,-0.198446
0.750000,-0.193594
0.751000,-0.189712
0.752000,-0.186154
0.753000,-0.183889
0.754000,-0.182272
0.755000,-0.181301
0.756000,-0.181948
0.757000,-0.182595
0.758000,-0.186801
0.759000,-0.195211
0.760000,-0.202651
0.761000,-0.208150
0.762000,-0.210091
0.763000,-0.208797
0.764000,-0.204268
0.765000,-0.197475
0.766000,-0.189388
0.767000,-0.185183
0.768000,-0.182595
0.769000,-0.179684
0.770000,-0.177096
0.771000,-0.175802
0.772000,-0.175479
0.773000,-0.175802
0.774000,-0.177420
0.775000,-0.182919
0.776000,-0.191976
0.777000,-0.199416
0.778000,-0.203298
0.779000,-0.204268
0.780000,-0.202651
0.781000,-0.196505
0.782000,-0.189712
0.783000,-0.182595
0.784000,-0.179361
0.785000,-0.175802
0.786000,-0.173538
0.787000,-0.171274
0.788000,-0.169980
0.789000,-0.170627
0.790000,-0.171597
0.791000,-0.174185
0.792000,-0.182595
0.793000,-0.189065
0.794000,-0.196181
0.795000,-0.198769
0.796000,-0.200710
0.797000,-0.196181
0.798000,-0.190682
0.799000,-0.182272
0.800000,-0.177096
0.801000,-0.173861
0.802000,-0.171274
0.803000,-0.169009
0.804000,-0.166745
0.805000,-0.166098
0.806000,-0.166421
0.807000,-0.168039
0.808000,-0.171597
0.809000,-0.180654
0.810000,-0.187448
0.811000,-0.193594
0.812000,-0.195211
0.813000,-0.194888
0.814000,-0.191976
0.815000,-0.183566
0.816000,-0.176126
0.817000,-0.171597
0.818000,-0.169009
0.819000,-0.166421
0.820000,-0.163510
0.821000,-0.162863
0.822000,-0.162540
0.823000,-0.162863
0.824000,-0.164480
0.825000,-0.170627
0.826000,-0.179361
0.827000,-0.186801
0.828000,-0.191006
0.829000,-0.192947
0.830000,-0.190682
0.831000,-0.184860
0.832000,-0.178390
0.833000,-0.171274
0.834000,-0.167392
0.835000,-0.164480
0.836000,-0.162540
0.837000,-0.160275
0.838000,-0.159305
0.839000,-0.158981
0.840000,-0.160599
0.841000,-0.162863
0.842000,-0.171597
0.843000,-0.178714
0.844000,-0.184536
0.845000,-0.189065
0.846000,-0.190035
0.847000,-0.186154
0.848000,-0.180007
0.849000,-0.172244
0.850000,-0.167392
0.851000,-0.163510
0.852000,-0.160599
0.853000,-0.158658
0.854000,-0.156394
0.855000,-0.156717
0.856000,-0.157040
0.857000,-0.158011
0.858000,-0.161893
0.859000,-0.171274
0.860000,-0.179037
0.861000,-0.184213
0.862000,-0.186801
0.863000,-0.185830
0.864000,-0.181625
0.865000,-0.175155
0.866000,-0.166421
0.867000,-0.162863
0.868000,-0.160275
0.869000,-0.157687
0.870000,-0.155100
0.871000,-0.153482
0.872000,-0.153806
0.873000,-0.154129
0.874000,-0.156070
0.875000,-0.161893
0.876000,-0.170950
0.877000,-0.178390
0.878000,-0.182272
0.879000,-0.184536
0.880000,-0.182919
0.881000,-0.176773
0.882000,-0.169656
0.883000,-0.162863
0.884000,-0.159628
0.885000,-0.156717
0.886000,-0.154453
0.887000,-0.152512
0.888000,-0.151218
0.889000,-0.151218
0.890000,-0.152512
0.891000,-0.155100
0.892000,-0.163187
0.893000,-0.171274
0.894000,-0.177743
0.895000,-0.181625
0.896000,-0.181948
0.897000,-0.179684
0.898000,-0.172244
0.899000,-0.165451
0.900000,-0.159305
0.901000,-0.156394
0.902000,-0.153482
0.903000,-0.151218
0.904000,-0.149600
0.905000,-0.148954
0.906000,-0.149277
0.907000,-0.150571
0.908000,-0.155100
0.909000,-0.163834
0.910000,-0.171597
0.911000,-0.176449
0.912000,-0.179037
0.913000,-0.178714
0.914000,-0.175155
0.915000,-0.168039
0.916000,-0.160275
0.917000,-0.156717
0.918000,-0.153159
0.919000,-0.151218
0.920000,-0.148307
0.921000,-0.147013
0.922000,-0.147013
0.923000,-0.147660
0.924000,-0.149924
0.925000,-0.155423
0.926000,-0.163834
0.927000,-0.171921
0.928000,-0.176126
0.929000,-0.177743
0.930000,-0.176449
0.931000,-0.170303
0.932000,-0.163510
0.933000,-0.156717
0.934000,-0.153482
0.935000,-0.150247
0.936000,-0.148307
0.937000,-0.146366
0.938000,-0.145719
0.939000,-0.145395
0.940000,-0.146689
0.941000,-0.148630
0.942000,-0.157364
0.943000,-0.164804
0.944000,-0.171274
0.945000,-0.174832
0.946000,-0.176773
0.947000,-0.173538
0.948000,-0.167392
0.949000,-0.159305
0.950000,-0.153806
0.951000,-0.150247
0.952000,-0.147660
0.953000,-0.145395
0.954000,-0.143778
0.955000,-0.142807
0.956000,-0.143778
0.957000,-0.145072
0.958000,-0.149600
0.959000,-0.158658
0.960000,-0.165774
0.961000,-0.170950
0.962000,-0.173538
0.963000,-0.172891
0.964000,-0.169333
0.965000,-0.162540
0.966000,-0.155100
0.967000,-0.150247
0.968000,-0.147983
0.969000,-0.145072
0.970000,-0.143131
0.971000,-0.141837
0.972000,-0.141513
0.973000,-0.142807
0.974000,-0.144101
0.975000,-0.149924
0.976000,-0.158981
0.977000,-0.166745
0.978000,-0.170950
0.979000,-0.172891
0.980000,-0.171274
0.981000,-0.165451
0.982000,-0.158334
0.983000,-0.151218
0.984000,-0.148630
0.985000,-0.145395
