LabVIEW Measurement,
Writer_Version,2
Reader_Version,2
Separator,Comma
Decimal_Separator,.
Multi_Headings,No
X_Columns,One
Time_Pref,Absolute
Operator,localuser
Date,2024/07/15
Time,10:18:28.6095378999996847986
***End_of_Header***,
,
Channels,1,
Samples,5000,
Date,2024/07/15,
Time,10:18:28.6095378999996847986,
Y_Unit_Label,Volts,
X_Dimension,Time,
X0,0.0000000000000000E+0,
Delta_X,0.001000,
***End_of_Header***,,
X_Value,Voltage,Comment
0.000000,-0.213973
0.001000,-0.143454
0.002000,0.038341
0.003000,0.175172
0.004000,0.269952
0.005000,0.287743
0.006000,0.265747
0.007000,0.169997
0.008000,0.023137
0.009000,-0.140220
0.010000,-0.233058
0.011000,-0.285138
0.012000,-0.320721
0.013000,-0.332043
0.014000,-0.322985
0.015000,-0.292902
0.016000,-0.245674
0.017000,-0.326543
0.018000,-0.300989
0.019000,-0.293872
0.020000,-0.288373
0.021000,-0.281903
0.022000,-0.275434
0.023000,-0.266700
0.024000,-0.256349
0.025000,-0.244056
0.026000,-0.232411
0.027000,-0.226265
0.028000,-0.222060
0.029000,-0.218178
0.030000,-0.214943
0.031000,-0.213973
0.032000,-0.213326
0.033000,-0.214620
0.034000,-0.216884
0.035000,-0.224001
0.036000,-0.234028
0.037000,-0.240822
0.038000,-0.243733
0.039000,-0.242439
0.040000,-0.237263
0.041000,-0.227559
0.042000,-0.217531
0.043000,-0.208150
0.044000,-0.203945
0.045000,-0.200063
0.046000,-0.197475
0.047000,-0.194888
0.048000,-0.193917
0.049000,-0.194888
0.050000,-0.196505
0.051000,-0.200063
0.052000,-0.211061
0.053000,-0.219795
0.054000,-0.226588
0.055000,-0.228853
0.056000,-0.227882
0.057000,-0.221089
0.058000,-0.211708
0.059000,-0.201034
0.060000,-0.194888
0.061000,-0.190682
0.062000,-0.187771
0.063000,-0.185183
0.064000,-0.183242
0.065000,-0.183889
0.066000,-0.184860
0.067000,0.338853
0.068000,0.349204
0.069000,0.351145
0.070000,0.346293
0.071000,0.325914
0.072000,0.305534
0.073000,0.242456
0.074000,0.139590
0.075000,-0.017945
0.076000,-0.167392
0.077000,-0.242439
0.078000,-0.285462
0.079000,-0.315222
0.080000,-0.321368
0.081000,-0.308105
0.082000,-0.273816
0.083000,-0.222383
0.084000,-0.158981
0.085000,-0.023767
0.086000,0.143148
0.087000,0.257013
0.088000,0.291301
0.089000,0.283861
0.090000,0.212049
0.091000,0.064219
0.092000,-0.083611
0.093000,-0.212355
0.094000,-0.267670
0.095000,-0.308429
0.096000,-0.328161
0.097000,-0.322985
0.098000,-0.299048
0.099000,-0.261524
0.100000,-0.210415
0.101000,-0.139573
0.102000,0.043193
0.103000,0.178407
0.104000,0.270922
0.105000,0.286773
0.106000,0.264129
0.107000,0.166762
0.108000,0.018285
0.109000,-0.144425
0.110000,-0.234999
0.111000,-0.286109
0.112000,-0.321691
0.113000,-0.331072
0.114000,-0.322662
0.115000,-0.293225
0.116000,-0.243409
0.117000,-0.320397
0.118000,-0.300018
0.119000,-0.293549
0.120000,-0.287403
0.121000,-0.281903
0.122000,-0.275434
0.123000,-0.266376
0.124000,-0.256025
0.125000,-0.243409
0.126000,-0.231764
0.127000,-0.226265
0.128000,-0.222060
0.129000,-0.218501
0.130000,-0.214943
0.131000,-0.213649
0.132000,-0.213326
0.133000,-0.214296
0.134000,-0.216884
0.135000,-0.224648
0.136000,-0.234028
0.137000,-0.241468
0.138000,-0.243086
0.139000,-0.242115
0.140000,-0.236940
0.141000,-0.226912
0.142000,-0.216561
0.143000,-0.207827
0.144000,-0.203298
0.145000,-0.200063
0.146000,-0.197152
0.147000,-0.195211
0.148000,-0.194564
0.149000,-0.194564
0.150000,-0.197152
0.151000,-0.200063
0.152000,-0.211061
0.153000,-0.220119
0.154000,-0.226588
0.155000,-0.228853
0.156000,-0.227882
0.157000,-0.222060
0.158000,-0.212355
0.159000,-0.201034
0.160000,-0.194241
0.161000,-0.191006
0.162000,-0.187124
0.163000,-0.185183
0.164000,-0.183566
0.165000,-0.183566
0.166000,-0.184860
0.167000,0.335942
0.168000,0.350175
0.169000,0.349851
0.170000,0.346940
0.171000,0.327855
0.172000,0.304888
0.173000,0.239868
0.174000,0.134414
0.175000,-0.022473
0.176000,-0.170950
0.177000,-0.243409
0.178000,-0.287403
0.179000,-0.314575
0.180000,-0.320721
0.181000,-0.306488
0.182000,-0.271876
0.183000,-0.221089
0.184000,-0.157040
0.185000,-0.016327
0.186000,0.145089
0.187000,0.258307
0.188000,0.292272
0.189000,0.282567
0.190000,0.209138
0.191000,0.059690
0.192000,-0.087169
0.193000,-0.214943
0.194000,-0.268317
0.195000,-0.305841
0.196000,-0.326543
0.197000,-0.326220
0.198000,-0.299371
0.199000,-0.259260
0.200000,-0.209121
0.201000,-0.139249
0.202000,0.048369
0.203000,0.182289
0.204000,0.272863
0.205000,0.287420
0.206000,0.261865
0.207000,0.162880
0.208000,0.014727
0.209000,-0.146042
0.210000,-0.236940
0.211000,-0.288696
0.212000,-0.322662
0.213000,-0.330425
0.214000,-0.323309
0.215000,-0.294196
0.216000,-0.241145
0.217000,-0.316192
0.218000,-0.297430
0.219000,-0.292255
0.220000,-0.287403
0.221000,-0.281256
0.222000,-0.275110
0.223000,-0.266053
0.224000,-0.256025
0.225000,-0.243409
0.226000,-0.232088
0.227000,-0.225942
0.228000,-0.221736
0.229000,-0.218501
0.230000,-0.214943
0.231000,-0.213326
0.232000,-0.213973
0.233000,-0.214296
0.234000,-0.216884
0.235000,-0.224648
0.236000,-0.234352
0.237000,-0.240822
0.238000,-0.242762
0.239000,-0.242115
0.240000,-0.236940
0.241000,-0.226912
0.242000,-0.215914
0.243000,-0.207827
0.244000,-0.203298
0.245000,-0.199416
0.246000,-0.197152
0.247000,-0.194564
0.248000,-0.193917
0.249000,-0.194888
0.250000,-0.196828
0.251000,-0.199093
0.252000,-0.212355
0.253000,-0.219472
0.254000,-0.226912
0.255000,-0.228529
0.256000,-0.227882
0.257000,-0.221089
0.258000,-0.211385
0.259000,-0.200710
0.260000,-0.194888
0.261000,-0.190359
0.262000,-0.187448
0.263000,-0.184860
0.264000,-0.182919
0.265000,-0.183242
0.266000,-0.184536
0.267000,0.333030
0.268000,0.350175
0.269000,0.350498
0.270000,0.344675
0.271000,0.327208
0.272000,0.301653
0.273000,0.239545
0.274000,0.132797
0.275000,-0.022150
0.276000,-0.173538
0.277000,-0.245997
0.278000,-0.287079
0.279000,-0.314898
0.280000,-0.319427
0.281000,-0.305194
0.282000,-0.271552
0.283000,-0.219795
0.284000,-0.155100
0.285000,-0.012122
0.286000,0.148000
0.287000,0.258954
0.288000,0.292595
0.289000,0.282567
0.290000,0.205256
0.291000,0.056456
0.292000,-0.091051
0.293000,-0.214943
0.294000,-0.268317
0.295000,-0.308752
0.296000,-0.326543
0.297000,-0.324926
0.298000,-0.300018
0.299000,-0.260230
0.300000,-0.209768
0.301000,-0.134397
0.302000,0.049663
0.303000,0.188759
0.304000,0.275127
0.305000,0.285479
0.306000,0.257336
0.307000,0.164174
0.308000,0.013109
0.309000,-0.150247
0.310000,-0.237263
0.311000,-0.286756
0.312000,-0.320397
0.313000,-0.331072
0.314000,-0.322015
0.315000,-0.291608
0.316000,-0.242439
0.317000,-0.312634
0.318000,-0.295813
0.319000,-0.291284
0.320000,-0.286756
0.321000,-0.281256
0.322000,-0.274463
0.323000,-0.265729
0.324000,-0.255702
0.325000,-0.243086
0.326000,-0.231441
0.327000,-0.225618
0.328000,-0.221413
0.329000,-0.217531
0.330000,-0.215267
0.331000,-0.213326
0.332000,-0.213002
0.333000,-0.214620
0.334000,-0.216561
0.335000,-0.224648
0.336000,-0.234352
0.337000,-0.240822
0.338000,-0.243409
0.339000,-0.242762
0.340000,-0.236293
0.341000,-0.226265
0.342000,-0.216237
0.343000,-0.208150
0.344000,-0.203298
0.345000,-0.200063
0.346000,-0.196828
0.347000,-0.194888
0.348000,-0.194564
0.349000,-0.195211
0.350000,-0.196505
0.351000,-0.200387
0.352000,-0.212032
0.353000,-0.220766
0.354000,-0.226588
0.355000,-0.228529
0.356000,-0.227235
0.357000,-0.220766
0.358000,-0.211061
0.359000,-0.200387
0.360000,-0.194241
0.361000,-0.190682
0.362000,-0.187124
0.363000,-0.184536
0.364000,-0.182919
0.365000,-0.182919
0.366000,-0.184860
0.367000,0.330766
0.368000,0.350498
0.369000,0.349851
0.370000,0.343382
0.371000,0.326561
0.372000,0.306181
0.373000,0.241162
0.374000,0.126004
0.375000,-0.026678
0.376000,-0.173538
0.377000,-0.245350
0.378000,-0.289020
0.379000,-0.316839
0.380000,-0.320397
0.381000,-0.303576
0.382000,-0.269935
0.383000,-0.217531
0.384000,-0.152835
0.385000,-0.007593
0.386000,0.151558
0.387000,0.261541
0.388000,0.290978
0.389000,0.280950
0.390000,0.203315
0.391000,0.052250
0.392000,-0.095903
0.393000,-0.214620
0.394000,-0.271876
0.395000,-0.309399
0.396000,-0.327514
0.397000,-0.324926
0.398000,-0.299371
0.399000,-0.258613
0.400000,-0.207827
0.401000,-0.131162
0.402000,0.055162
0.403000,0.187141
0.404000,0.275451
0.405000,0.287420
0.406000,0.255072
0.407000,0.158028
0.408000,0.010845
0.409000,-0.154129
0.410000,-0.237910
0.411000,-0.290314
0.412000,-0.322015
0.413000,-0.329778
0.414000,-0.322338
0.415000,-0.291608
0.416000,-0.240498
0.417000,-0.309076
0.418000,-0.295166
0.419000,-0.290961
0.420000,-0.286432
0.421000,-0.281256
0.422000,-0.274140
0.423000,-0.265406
0.424000,-0.254408
0.425000,-0.242439
0.426000,-0.231764
0.427000,-0.224971
0.428000,-0.221736
0.429000,-0.217531
0.430000,-0.214620
0.431000,-0.212679
0.432000,-0.213326
0.433000,-0.214296
0.434000,-0.216884
0.435000,-0.225295
0.436000,-0.234352
0.437000,-0.241145
0.438000,-0.243086
0.439000,-0.242439
0.440000,-0.236293
0.441000,-0.225942
0.442000,-0.215914
0.443000,-0.207503
0.444000,-0.203298
0.445000,-0.199740
0.446000,-0.196828
0.447000,-0.194888
0.448000,-0.194564
0.449000,-0.194888
0.450000,-0.197152
0.451000,-0.200710
0.452000,-0.212355
0.453000,-0.220766
0.454000,-0.227235
0.455000,-0.228529
0.456000,-0.226912
0.457000,-0.220442
0.458000,-0.211385
0.459000,-0.200063
0.460000,-0.193917
0.461000,-0.190682
0.462000,-0.186801
0.463000,-0.184536
0.464000,-0.183242
0.465000,-0.183889
0.466000,-0.185183
0.467000,0.331089
0.468000,0.351145
0.469000,0.349204
0.470000,0.345322
0.471000,0.326561
0.472000,0.304241
0.473000,0.236957
0.474000,0.120828
0.475000,-0.033795
0.476000,-0.179361
0.477000,-0.245027
0.478000,-0.291284
0.479000,-0.314575
0.480000,-0.320074
0.481000,-0.303253
0.482000,-0.268964
0.483000,-0.217855
0.484000,-0.151865
0.485000,-0.000153
0.486000,0.154470
0.487000,0.261865
0.488000,0.292595
0.489000,0.281274
0.490000,0.201051
0.491000,0.050310
0.492000,-0.099785
0.493000,-0.217855
0.494000,-0.270258
0.495000,-0.310370
0.496000,-0.327514
0.497000,-0.322338
0.498000,-0.299048
0.499000,-0.257319
0.500000,-0.206533
0.501000,-0.123399
0.502000,0.057103
0.503000,0.191346
0.504000,0.274804
0.505000,0.286773
0.506000,0.250220
0.507000,0.156411
0.508000,0.005023
0.509000,-0.155100
0.510000,-0.242762
0.511000,-0.292578
0.512000,-0.323956
0.513000,-0.330749
0.514000,-0.322985
0.515000,-0.290314
0.516000,-0.382182
0.517000,-0.306488
0.518000,-0.293872
0.519000,-0.289990
0.520000,-0.285462
0.521000,-0.279962
0.522000,-0.274140
0.523000,-0.265082
0.524000,-0.253761
0.525000,-0.242115
0.526000,-0.231117
0.527000,-0.225618
0.528000,-0.221413
0.529000,-0.217208
0.530000,-0.214620
0.531000,-0.213002
0.532000,-0.213002
0.533000,-0.214943
0.534000,-0.216561
0.535000,-0.225942
0.536000,-0.234999
0.537000,-0.240822
0.538000,-0.242762
0.539000,-0.242115
0.540000,-0.235646
0.541000,-0.225942
0.542000,-0.215914
0.543000,-0.207503
0.544000,-0.202974
0.545000,-0.199416
0.546000,-0.196828
0.547000,-0.194888
0.548000,-0.194241
0.549000,-0.195211
0.550000,-0.196828
0.551000,-0.200710
0.552000,-0.212355
0.553000,-0.221413
0.554000,-0.227235
0.555000,-0.228853
0.556000,-0.226588
0.557000,-0.221089
0.558000,-0.210415
0.559000,-0.199740
0.560000,-0.193270
0.561000,-0.189712
0.562000,-0.186477
0.563000,-0.184860
0.564000,-0.182919
0.565000,-0.183566
0.566000,0.372171
0.567000,0.329795
0.568000,0.349204
0.569000,0.349851
0.570000,0.343058
0.571000,0.325590
0.572000,0.301976
0.573000,0.234693
0.574000,0.114035
0.575000,-0.036059
0.576000,-0.181948
0.577000,-0.246968
0.578000,-0.291931
0.579000,-0.313604
0.580000,-0.322662
0.581000,-0.304223
0.582000,-0.265729
0.583000,-0.218178
0.584000,-0.149924
0.585000,0.002758
0.586000,0.157705
0.587000,0.261541
0.588000,0.291301
0.589000,0.281274
0.590000,0.195552
0.591000,0.045781
0.592000,-0.104313
0.593000,-0.219472
0.594000,-0.273169
0.595000,-0.311340
0.596000,-0.326867
0.597000,-0.325250
0.598000,-0.299371
0.599000,-0.255702
0.600000,-0.205886
0.601000,-0.118546
0.602000,0.062278
0.603000,0.194905
0.604000,0.277715
0.605000,0.287743
0.606000,0.246985
0.607000,0.152529
0.608000,-0.000800
0.609000,-0.160275
0.610000,-0.244703
0.611000,-0.289990
0.612000,-0.323956
0.613000,-0.330749
0.614000,-0.318133
0.615000,-0.289667
0.616000,-0.352745
0.617000,-0.303576
0.618000,-0.292578
0.619000,-0.289020
0.620000,-0.285462
0.621000,-0.279962
0.622000,-0.273816
0.623000,-0.264436
0.624000,-0.253437
0.625000,-0.241468
0.626000,-0.230470
0.627000,-0.224648
0.628000,-0.220119
0.629000,-0.216561
0.630000,-0.214620
0.631000,-0.213326
0.632000,-0.213002
0.633000,-0.214620
0.634000,-0.217531
0.635000,-0.225618
0.636000,-0.234999
0.637000,-0.241145
0.638000,-0.243086
0.639000,-0.242115
0.640000,-0.235646
0.641000,-0.225618
0.642000,-0.215267
0.643000,-0.206856
0.644000,-0.202974
0.645000,-0.199416
0.646000,-0.196505
0.647000,-0.194564
0.648000,-0.194564
0.649000,-0.194888
0.650000,-0.196828
0.651000,-0.201357
0.652000,-0.212355
0.653000,-0.221089
0.654000,-0.226912
0.655000,-0.228206
0.656000,-0.226588
0.657000,-0.220119
0.658000,-0.210091
0.659000,-0.199740
0.660000,-0.193917
0.661000,-0.190035
0.662000,-0.187448
0.663000,-0.184536
0.664000,-0.182919
0.665000,-0.182919
0.666000,0.350175
0.667000,0.328502
0.668000,0.350498
0.669000,0.351469
0.670000,0.343382
0.671000,0.324296
0.672000,0.302623
0.673000,0.233399
0.674000,0.108212
0.675000,-0.038971
0.676000,-0.184860
0.677000,-0.248262
0.678000,-0.291931
0.679000,-0.316839
0.680000,-0.317810
0.681000,-0.300989
0.682000,-0.266053
0.683000,-0.213973
0.684000,-0.148307
0.685000,0.011816
0.686000,0.162557
0.687000,0.264129
0.688000,0.289361
0.689000,0.279009
0.690000,0.193287
0.691000,0.044163
0.692000,-0.108842
0.693000,-0.219472
0.694000,-0.274463
0.695000,-0.310046
0.696000,-0.328808
0.697000,-0.324279
0.698000,-0.299371
0.699000,-0.252143
0.700000,-0.202974
0.701000,-0.116282
0.702000,0.063896
0.703000,0.196846
0.704000,0.277392
0.705000,0.288390
0.706000,0.245044
0.707000,0.150588
0.708000,-0.002741
0.709000,-0.163834
0.710000,-0.246644
0.711000,-0.293549
0.712000,-0.323956
0.713000,-0.331072
0.714000,-0.318133
0.715000,-0.288049
0.716000,-0.338836
0.717000,-0.301312
0.718000,-0.290961
0.719000,-0.288373
0.720000,-0.284815
0.721000,-0.279316
0.722000,-0.273493
0.723000,-0.264436
0.724000,-0.253114
0.725000,-0.241468
0.726000,-0.231117
0.727000,-0.225295
0.728000,-0.220442
0.729000,-0.217208
0.730000,-0.213973
0.731000,-0.213649
0.732000,-0.213649
0.733000,-0.214943
0.734000,-0.217208
0.735000,-0.225618
0.736000,-0.234999
0.737000,-0.241145
0.738000,-0.242439
0.739000,-0.242115
0.740000,-0.235646
0.741000,-0.224971
0.742000,-0.214943
0.743000,-0.207180
0.744000,-0.202974
0.745000,-0.199740
0.746000,-0.196505
0.747000,-0.194564
0.748000,-0.193917
0.749000,-0.194564
0.750000,-0.196828
0.751000,-0.201681
0.752000,-0.212355
0.753000,-0.221089
0.754000,-0.227235
0.755000,-0.228529
0.756000,-0.226265
0.757000,-0.220119
0.758000,-0.209768
0.759000,-0.199416
0.760000,-0.193917
0.761000,-0.190035
0.762000,-0.186801
0.763000,-0.184536
0.764000,-0.182919
0.765000,-0.183242
0.766000,0.344028
0.767000,0.329472
0.768000,0.347910
0.769000,0.351145
0.770000,0.344028
0.771000,0.324620
0.772000,0.301006
0.773000,0.232105
0.774000,0.103684
0.775000,-0.041558
0.776000,-0.187771
0.777000,-0.250202
0.778000,-0.292578
0.779000,-0.316516
0.780000,-0.318780
0.781000,-0.300018
0.782000,-0.266376
0.783000,-0.213002
0.784000,-0.146689
0.785000,0.016021
0.786000,0.168056
0.787000,0.267687
0.788000,0.291625
0.789000,0.279656
0.790000,0.188435
0.791000,0.042223
0.792000,-0.113047
0.793000,-0.222060
0.794000,-0.276081
0.795000,-0.311340
0.796000,-0.328161
0.797000,-0.323632
0.798000,-0.296460
0.799000,-0.251496
0.800000,-0.202328
0.801000,-0.108842
0.802000,0.068748
0.803000,0.200404
0.804000,0.278362
0.805000,0.286449
0.806000,0.239868
0.807000,0.148324
0.808000,-0.008564
0.809000,-0.167068
0.810000,-0.247615
0.811000,-0.292578
0.812000,-0.322662
0.813000,-0.331072
0.814000,-0.320397
0.815000,-0.287403
0.816000,-0.330102
0.817000,-0.298724
0.818000,-0.289990
0.819000,-0.288049
0.820000,-0.284168
0.821000,-0.279316
0.822000,-0.273493
0.823000,-0.264112
0.824000,-0.252467
0.825000,-0.241145
0.826000,-0.229823
0.827000,-0.224648
0.828000,-0.220119
0.829000,-0.216884
0.830000,-0.214296
0.831000,-0.213002
0.832000,-0.212679
0.833000,-0.214620
0.834000,-0.217208
0.835000,-0.226588
0.836000,-0.235646
0.837000,-0.241468
0.838000,-0.242439
0.839000,-0.241792
0.840000,-0.235969
0.841000,-0.225295
0.842000,-0.214943
0.843000,-0.207180
0.844000,-0.202974
0.845000,-0.199093
0.846000,-0.196505
0.847000,-0.194241
0.848000,-0.194564
0.849000,-0.195534
0.850000,-0.196828
0.851000,-0.202004
0.852000,-0.212679
0.853000,-0.221736
0.854000,-0.227235
0.855000,-0.228853
0.856000,-0.225618
0.857000,-0.220119
0.858000,-0.209444
0.859000,-0.199093
0.860000,-0.193270
0.861000,-0.189712
0.862000,-0.187124
0.863000,-0.184536
0.864000,-0.182919
0.865000,-0.183242
0.866000,0.337235
0.867000,0.328502
0.868000,0.347910
0.869000,0.350175
0.870000,0.346293
0.871000,0.323002
0.872000,0.300359
0.873000,0.229517
0.874000,0.098184
0.875000,-0.045117
0.876000,-0.191329
0.877000,-0.252790
0.878000,-0.293549
0.879000,-0.316192
0.880000,-0.320074
0.881000,-0.298724
0.882000,-0.264759
0.883000,-0.212032
0.884000,-0.143454
0.885000,0.021196
0.886000,0.165792
0.887000,0.265423
0.888000,0.291948
0.889000,0.279009
0.890000,0.186818
0.891000,0.041252
0.892000,-0.116606
0.893000,-0.219472
0.894000,-0.276081
0.895000,-0.314251
0.896000,-0.328484
0.897000,-0.322985
0.898000,-0.296460
0.899000,-0.249879
0.900000,-0.201034
0.901000,-0.104637
0.902000,0.071659
0.903000,0.204286
0.904000,0.279333
0.905000,0.286449
0.906000,0.238251
0.907000,0.145736
0.908000,-0.012445
0.909000,-0.169333
0.910000,-0.249555
0.911000,-0.295166
0.912000,-0.323632
0.913000,-0.331396
0.914000,-0.319103
0.915000,-0.285785
0.916000,-0.324279
0.917000,-0.297107
0.918000,-0.289343
0.919000,-0.286432
0.920000,-0.284815
0.921000,-0.278345
0.922000,-0.272522
0.923000,-0.263465
0.924000,-0.252790
0.925000,-0.240822
0.926000,-0.229500
0.927000,-0.224648
0.928000,-0.220119
0.929000,-0.216561
0.930000,-0.214620
0.931000,-0.213002
0.932000,-0.212355
0.933000,-0.213973
0.934000,-0.217208
0.935000,-0.226588
0.936000,-0.235322
0.937000,-0.241145
0.938000,-0.242762
0.939000,-0.241792
0.940000,-0.235322
0.941000,-0.224971
0.942000,-0.213973
0.943000,-0.207180
0.944000,-0.202328
0.945000,-0.199416
0.946000,-0.196505
0.947000,-0.194241
0.948000,-0.193917
0.949000,-0.195211
0.950000,-0.196828
0.951000,-0.202328
0.952000,-0.213326
0.953000,-0.221736
0.954000,-0.227235
0.955000,-0.228529
0.956000,-0.225942
0.957000,-0.219472
0.958000,-0.209444
0.959000,-0.199093
0.960000,-0.193594
0.961000,-0.190359
0.962000,-0.187124
0.963000,-0.184213
0.964000,-0.183242
0.965000,-0.183566
0.966000,0.333354
0.967000,0.328825
0.968000,0.348557
0.969000,0.350175
0.970000,0.344675
0.971000,0.325267
0.972000,0.301653
0.973000,0.230164
0.974000,0.094303
0.975000,-0.051586
0.976000,-0.194564
0.977000,-0.253114
0.978000,-0.293872
0.979000,-0.315869
0.980000,-0.318780
0.981000,-0.300018
0.982000,-0.265729
0.983000,-0.209768
0.984000,-0.140867
0.985000,0.027666
0.986000,0.169997
