LabVIEW Measurement,
Writer_Version,2
Reader_Version,2
Separator,Comma
Decimal_Separator,.
Multi_Headings,No
X_Columns,One
Time_Pref,Absolute
Operator,localuser
Date,2024/07/15
Time,10:20:33.5730848999997036737
***End_of_Header***,
,
Channels,1,
Samples,5000,
Date,2024/07/15,
Time,10:20:33.5730848999997036737,
Y_Unit_Label,Volts,
X_Dimension,Time,
X0,0.0000000000000000E+0,
Delta_X,0.001000,
***End_of_Header***,,
X_Value,Voltage,Comment
0.000000,-0.182272
0.001000,-0.174832
0.002000,-0.170303
0.003000,-0.167068
0.004000,-0.164157
0.005000,-0.163187
0.006000,-0.160922
0.007000,-0.161569
0.008000,-0.161893
0.009000,-0.162863
0.010000,-0.168362
0.011000,-0.178390
0.012000,-0.184860
0.013000,-0.189388
0.014000,-0.191329
0.015000,-0.189388
0.016000,-0.184213
0.017000,-0.177096
0.018000,-0.169980
0.019000,-0.166421
0.020000,-0.163834
0.021000,-0.161246
0.022000,-0.158658
0.023000,-0.158334
0.024000,-0.158334
0.025000,-0.159305
0.026000,-0.161569
0.027000,-0.169656
0.028000,-0.177096
0.029000,-0.183566
0.030000,-0.187448
0.031000,-0.188418
0.032000,-0.185183
0.033000,-0.179037
0.034000,-0.171921
0.035000,-0.166421
0.036000,-0.163187
0.037000,-0.159952
0.038000,-0.157364
0.039000,-0.155423
0.040000,-0.155100
0.041000,-0.155747
0.042000,-0.156070
0.043000,-0.159628
0.044000,-0.168686
0.045000,-0.177096
0.046000,-0.182595
0.047000,-0.185183
0.048000,-0.184860
0.049000,-0.181301
0.050000,-0.174185
0.051000,-0.166421
0.052000,-0.162216
0.053000,-0.159952
0.054000,-0.156717
0.055000,-0.154129
0.056000,-0.152512
0.057000,-0.152512
0.058000,-0.153482
0.059000,-0.155100
0.060000,-0.160275
0.061000,-0.169980
0.062000,-0.175802
0.063000,-0.182272
0.064000,-0.183566
0.065000,-0.181301
0.066000,-0.176449
0.067000,-0.169333
0.068000,-0.162216
0.069000,-0.158981
0.070000,-0.155747
0.071000,-0.153159
0.072000,-0.151218
0.073000,-0.150894
0.074000,-0.150247
0.075000,-0.151541
0.076000,-0.153806
0.077000,-0.162216
0.078000,-0.170303
0.079000,-0.176126
0.080000,-0.179684
0.081000,-0.181625
0.082000,-0.178067
0.083000,-0.171597
0.084000,-0.164480
0.085000,-0.158658
0.086000,-0.156070
0.087000,-0.152835
0.088000,-0.150571
0.089000,-0.148954
0.090000,-0.147983
0.091000,-0.148954
0.092000,-0.149924
0.093000,-0.153806
0.094000,-0.163834
0.095000,-0.170303
0.096000,-0.176449
0.097000,-0.178390
0.098000,-0.179037
0.099000,-0.174832
0.100000,-0.167392
0.101000,-0.160599
0.102000,-0.156394
0.103000,-0.153159
0.104000,-0.150247
0.105000,-0.147983
0.106000,-0.146366
0.107000,-0.146366
0.108000,-0.147013
0.109000,-0.148630
0.110000,-0.154453
0.111000,-0.164157
0.112000,-0.170303
0.113000,-0.175479
0.114000,-0.177420
0.115000,-0.175479
0.116000,0.334001
0.117000,0.171291
0.118000,0.008904
0.119000,-0.056762
0.120000,-0.107225
0.121000,-0.137632
0.122000,-0.150571
0.123000,-0.135691
0.124000,-0.100755
0.125000,-0.042205
0.126000,0.036400
0.127000,0.213666
0.128000,0.341117
0.129000,0.339500
0.130000,0.321061
0.131000,0.292595
0.132000,0.189082
0.133000,0.028313
0.134000,-0.152512
0.135000,-0.267023
0.136000,-0.329455
0.137000,-0.362126
0.138000,-0.358568
0.139000,-0.344335
0.140000,-0.312634
0.141000,-0.260554
0.142000,-0.207827
0.143000,-0.097520
0.144000,0.099478
0.145000,0.248926
0.146000,0.317503
0.147000,0.308769
0.148000,0.247955
0.149000,0.145412
0.150000,-0.027649
0.151000,-0.210738
0.152000,-0.295813
0.153000,-0.340453
0.154000,-0.361479
0.155000,-0.355333
0.156000,-0.336895
0.157000,-0.299695
0.158000,-0.244056
0.159000,-0.181301
0.160000,-0.041235
0.161000,0.152529
0.162000,0.283538
0.163000,0.316856
0.164000,0.302623
0.165000,0.227900
0.166000,0.076188
0.167000,-0.084905
0.168000,-0.253437
0.169000,-0.312634
0.170000,-0.356304
0.171000,-0.361479
0.172000,-0.350804
0.173000,-0.321044
0.174000,-0.282550
0.175000,-0.224324
0.176000,-0.147013
0.177000,0.038341
0.178000,0.201698
0.179000,0.308769
0.180000,0.312004
0.181000,0.291625
0.182000,0.188435
0.183000,0.025402
0.184000,-0.156070
0.185000,-0.268317
0.186000,-0.329778
0.187000,-0.361803
0.188000,-0.360185
0.189000,-0.343688
0.190000,-0.312957
0.191000,-0.261524
0.192000,-0.205239
0.193000,-0.096226
0.194000,0.101743
0.195000,0.247308
0.196000,0.314268
0.197000,0.309093
0.198000,0.247632
0.199000,0.145412
0.200000,-0.032501
0.201000,-0.213002
0.202000,-0.297107
0.203000,-0.345305
0.204000,-0.362773
0.205000,-0.355980
0.206000,-0.338189
0.207000,-0.298724
0.208000,-0.244056
0.209000,-0.176126
0.210000,-0.039294
0.211000,0.153499
0.212000,0.287096
0.213000,0.317827
0.214000,0.301006
0.215000,0.226929
0.216000,0.072306
0.217000,-0.085875
0.218000,-0.254731
0.219000,-0.313281
0.220000,-0.356627
0.221000,-0.362126
0.222000,-0.350804
0.223000,-0.320397
0.224000,-0.283521
0.225000,-0.223677
0.226000,-0.146042
0.227000,0.042870
0.228000,0.200404
0.229000,0.308446
0.230000,0.313621
0.231000,0.288714
0.232000,0.185524
0.233000,0.024108
0.234000,-0.157687
0.235000,-0.270258
0.236000,-0.331072
0.237000,-0.362126
0.238000,-0.360185
0.239000,-0.346276
0.240000,-0.312634
0.241000,-0.259583
0.242000,-0.205886
0.243000,-0.091374
0.244000,0.102390
0.245000,0.248279
0.246000,0.314915
0.247000,0.308446
0.248000,0.249573
0.249000,0.142825
0.250000,-0.034118
0.251000,-0.213002
0.252000,-0.296783
0.253000,-0.346599
0.254000,-0.364714
0.255000,-0.356627
0.256000,-0.337865
0.257000,-0.297754
0.258000,-0.243733
0.259000,-0.178390
0.260000,-0.037353
0.261000,0.156734
0.262000,0.285479
0.263000,0.317503
0.264000,0.302623
0.265000,0.226282
0.266000,0.072630
0.267000,-0.089757
0.268000,-0.252467
0.269000,-0.314898
0.270000,-0.354686
0.271000,-0.358891
0.272000,-0.351775
0.273000,-0.320074
0.274000,-0.282874
0.275000,-0.222707
0.276000,-0.145072
0.277000,0.046428
0.278000,0.202992
0.279000,0.308769
0.280000,0.311681
0.281000,0.288390
0.282000,0.185200
0.283000,0.023784
0.284000,-0.160275
0.285000,-0.271229
0.286000,-0.331396
0.287000,-0.362450
0.288000,-0.360509
0.289000,-0.345305
0.290000,-0.311016
0.291000,-0.260230
0.292000,-0.202974
0.293000,-0.089110
0.294000,0.104654
0.295000,0.249896
0.296000,0.315562
0.297000,0.307475
0.298000,0.247955
0.299000,0.143472
0.300000,-0.035736
0.301000,-0.212679
0.302000,-0.295489
0.303000,-0.344658
0.304000,-0.362450
0.305000,-0.355010
0.306000,-0.336571
0.307000,-0.299048
0.308000,-0.243086
0.309000,-0.174185
0.310000,-0.034442
0.311000,0.158352
0.312000,0.287743
0.313000,0.316856
0.314000,0.301006
0.315000,0.225312
0.316000,0.071336
0.317000,-0.089433
0.318000,-0.252143
0.319000,-0.315545
0.320000,-0.354039
0.321000,-0.361479
0.322000,-0.350481
0.323000,-0.319750
0.324000,-0.280933
0.325000,-0.222707
0.326000,-0.144101
0.327000,0.049339
0.328000,0.203639
0.329000,0.310063
0.330000,0.311357
0.331000,0.286126
0.332000,0.182612
0.333000,0.022814
0.334000,-0.161569
0.335000,-0.270258
0.336000,-0.332043
0.337000,-0.360832
0.338000,-0.358891
0.339000,-0.344982
0.340000,-0.311987
0.341000,-0.257966
0.342000,-0.202974
0.343000,-0.088139
0.344000,0.105624
0.345000,0.251514
0.346000,0.315239
0.347000,0.306505
0.348000,0.246014
0.349000,0.140884
0.350000,-0.035412
0.351000,-0.213002
0.352000,-0.296136
0.353000,-0.344335
0.354000,-0.362450
0.355000,-0.356627
0.356000,-0.337542
0.357000,-0.295813
0.358000,-0.241145
0.359000,-0.175155
0.360000,-0.033795
0.361000,0.158999
0.362000,0.289037
0.363000,0.315886
0.364000,0.300682
0.365000,0.225635
0.366000,-0.327837
0.367000,-0.293225
0.368000,-0.275434
0.369000,-0.265406
0.370000,-0.258289
0.371000,-0.252790
0.372000,-0.246644
0.373000,-0.244380
0.374000,-0.242115
0.375000,-0.240498
0.376000,-0.241468
0.377000,-0.247291
0.378000,-0.251820
0.379000,-0.255378
0.380000,-0.254408
0.381000,-0.252467
0.382000,-0.246321
0.383000,-0.238557
0.384000,-0.228529
0.385000,-0.223030
0.386000,-0.218825
0.387000,-0.214943
0.388000,-0.212355
0.389000,-0.210091
0.390000,-0.209121
0.391000,-0.208797
0.392000,-0.209768
0.393000,-0.213326
0.394000,-0.221089
0.395000,-0.227559
0.396000,-0.231441
0.397000,-0.232411
0.398000,-0.230794
0.399000,-0.225618
0.400000,-0.217855
0.401000,-0.209768
0.402000,-0.205886
0.403000,-0.201357
0.404000,-0.199093
0.405000,-0.197152
0.406000,-0.195211
0.407000,-0.194241
0.408000,-0.194888
0.409000,-0.196505
0.410000,-0.201681
0.411000,-0.210415
0.412000,-0.216884
0.413000,-0.220119
0.414000,-0.221413
0.415000,-0.219472
0.416000,-0.212679
0.417000,-0.204268
0.418000,-0.197475
0.419000,-0.194241
0.420000,-0.190359
0.421000,-0.188418
0.422000,-0.186154
0.423000,-0.185507
0.424000,-0.185507
0.425000,-0.185830
0.426000,-0.188094
0.427000,-0.196505
0.428000,-0.203621
0.429000,-0.209768
0.430000,-0.212679
0.431000,-0.213002
0.432000,-0.209121
0.433000,-0.202328
0.434000,-0.194241
0.435000,-0.189388
0.436000,-0.186154
0.437000,-0.182595
0.438000,-0.180654
0.439000,-0.178714
0.440000,-0.178067
0.441000,-0.178390
0.442000,-0.179361
0.443000,-0.183889
0.444000,-0.192623
0.445000,-0.199416
0.446000,-0.204592
0.447000,-0.206856
0.448000,-0.205239
0.449000,-0.201357
0.450000,-0.194241
0.451000,-0.186154
0.452000,-0.182595
0.453000,-0.179684
0.454000,-0.176126
0.455000,-0.175155
0.456000,-0.172567
0.457000,-0.172891
0.458000,-0.173538
0.459000,-0.175479
0.460000,-0.180978
0.461000,-0.189712
0.462000,-0.196828
0.463000,-0.200710
0.464000,-0.202328
0.465000,-0.200710
0.466000,-0.193594
0.467000,-0.187124
0.468000,-0.180007
0.469000,-0.176773
0.470000,-0.173861
0.471000,-0.171274
0.472000,-0.169009
0.473000,-0.168362
0.474000,-0.168686
0.475000,-0.168686
0.476000,-0.171274
0.477000,-0.180007
0.478000,-0.187448
0.479000,-0.193917
0.480000,-0.196828
0.481000,-0.197799
0.482000,-0.194241
0.483000,-0.187448
0.484000,-0.179361
0.485000,-0.175155
0.486000,-0.171597
0.487000,-0.169009
0.488000,-0.166745
0.489000,-0.164480
0.490000,-0.164157
0.491000,-0.165127
0.492000,-0.165774
0.493000,-0.170303
0.494000,-0.179037
0.495000,-0.186154
0.496000,-0.191329
0.497000,-0.193917
0.498000,-0.192300
0.499000,-0.189065
0.500000,-0.181948
0.501000,-0.174185
0.502000,-0.169980
0.503000,-0.167715
0.504000,-0.164157
0.505000,-0.161569
0.506000,-0.161246
0.507000,-0.159952
0.508000,-0.161893
0.509000,-0.163510
0.510000,-0.169980
0.511000,-0.178390
0.512000,-0.185507
0.513000,-0.189065
0.514000,-0.190359
0.515000,-0.189065
0.516000,-0.182919
0.517000,-0.176126
0.518000,-0.169333
0.519000,-0.166098
0.520000,-0.162863
0.521000,-0.160599
0.522000,-0.158658
0.523000,-0.157687
0.524000,-0.157687
0.525000,-0.159628
0.526000,-0.161569
0.527000,-0.169656
0.528000,-0.178067
0.529000,-0.184213
0.530000,-0.186801
0.531000,-0.188418
0.532000,-0.185183
0.533000,-0.178067
0.534000,-0.170303
0.535000,-0.166098
0.536000,-0.161893
0.537000,-0.159305
0.538000,-0.157040
0.539000,-0.155100
0.540000,-0.154776
0.541000,-0.155423
0.542000,-0.156394
0.543000,-0.161246
0.544000,-0.170303
0.545000,-0.177743
0.546000,-0.182919
0.547000,-0.185183
0.548000,-0.184213
0.549000,-0.180654
0.550000,-0.173214
0.551000,-0.165451
0.552000,-0.161893
0.553000,-0.158981
0.554000,-0.156070
0.555000,-0.154129
0.556000,-0.151865
0.557000,-0.152835
0.558000,-0.153806
0.559000,-0.154776
0.560000,-0.161569
0.561000,-0.170627
0.562000,-0.177420
0.563000,-0.181625
0.564000,-0.183889
0.565000,-0.181948
0.566000,-0.175479
0.567000,-0.168362
0.568000,-0.161246
0.569000,-0.158334
0.570000,-0.155423
0.571000,-0.153159
0.572000,-0.151218
0.573000,-0.150247
0.574000,-0.150571
0.575000,-0.152188
0.576000,-0.153806
0.577000,-0.162540
0.578000,-0.170627
0.579000,-0.177096
0.580000,-0.180007
0.581000,-0.180978
0.582000,-0.177420
0.583000,-0.170950
0.584000,-0.163187
0.585000,-0.158658
0.586000,-0.155100
0.587000,-0.152512
0.588000,-0.150247
0.589000,-0.148307
0.590000,-0.148307
0.591000,-0.148630
0.592000,-0.149924
0.593000,-0.154776
0.594000,-0.163510
0.595000,-0.170950
0.596000,-0.176126
0.597000,-0.178714
0.598000,-0.177420
0.599000,-0.173861
0.600000,-0.166745
0.601000,-0.158981
0.602000,-0.155100
0.603000,-0.152512
0.604000,-0.149924
0.605000,-0.147336
0.606000,-0.146366
0.607000,-0.146042
0.608000,-0.147660
0.609000,-0.148630
0.610000,-0.155747
0.611000,-0.164157
0.612000,-0.171921
0.613000,-0.175155
0.614000,-0.177420
0.615000,-0.175479
0.616000,0.246985
0.617000,0.086863
0.618000,-0.062908
0.619000,-0.127604
0.620000,-0.177420
0.621000,-0.204268
0.622000,-0.216237
0.623000,-0.199416
0.624000,-0.159628
0.625000,-0.101079
0.626000,-0.020856
0.627000,0.175496
0.628000,0.314268
0.629000,0.340147
0.630000,0.318150
0.631000,0.281597
0.632000,0.175496
0.633000,0.016991
0.634000,-0.170303
0.635000,-0.273169
0.636000,-0.333013
0.637000,-0.361156
0.638000,-0.358244
0.639000,-0.342717
0.640000,-0.310046
0.641000,-0.254408
0.642000,-0.198122
0.643000,-0.077788
0.644000,0.115329
0.645000,0.256689
0.646000,0.316533
0.647000,0.306505
0.648000,0.240515
0.649000,0.131179
0.650000,-0.045117
0.651000,-0.220442
0.652000,-0.301312
0.653000,-0.347246
0.654000,-0.362773
0.655000,-0.354686
0.656000,-0.334307
0.657000,-0.294519
0.658000,-0.237263
0.659000,-0.166745
0.660000,-0.023767
0.661000,0.166762
0.662000,0.296477
0.663000,0.316209
0.664000,0.298741
0.665000,0.220136
0.666000,0.056456
0.667000,-0.105607
0.668000,-0.257642
0.669000,-0.320074
0.670000,-0.356304
0.671000,-0.357274
0.672000,-0.348217
0.673000,-0.318456
0.674000,-0.277375
0.675000,-0.219795
0.676000,-0.137308
0.677000,0.060014
0.678000,0.214313
0.679000,0.313298
0.680000,0.311357
0.681000,0.280950
0.682000,0.175819
0.683000,0.011169
0.684000,-0.175155
0.685000,-0.274787
0.686000,-0.334954
0.687000,-0.361479
0.688000,-0.359215
0.689000,-0.344335
0.690000,-0.310693
0.691000,-0.254408
0.692000,-0.198769
0.693000,-0.079082
0.694000,0.115652
0.695000,0.257013
0.696000,0.315562
0.697000,0.307475
0.698000,0.241162
0.699000,0.128268
0.700000,-0.047058
0.701000,-0.220766
0.702000,-0.301312
0.703000,-0.348540
0.704000,-0.363097
0.705000,-0.354686
0.706000,-0.333983
0.707000,-0.293872
0.708000,-0.238557
0.709000,-0.168362
0.710000,-0.021503
0.711000,0.164498
0.712000,0.292272
0.713000,0.316856
0.714000,0.299712
0.715000,0.218842
0.716000,0.056132
0.717000,-0.107872
0.718000,-0.257966
0.719000,-0.319750
0.720000,-0.355333
0.721000,-0.358244
0.722000,-0.348217
0.723000,-0.318456
0.724000,-0.277375
0.725000,-0.219472
0.726000,-0.139249
0.727000,0.063249
0.728000,0.214313
0.729000,0.310063
0.730000,0.307475
0.731000,0.277715
0.732000,0.173555
0.733000,0.010198
0.734000,-0.175479
0.735000,-0.276404
0.736000,-0.335924
0.737000,-0.361156
0.738000,-0.356950
0.739000,-0.344658
0.740000,-0.309076
0.741000,-0.254084
0.742000,-0.198122
0.743000,-0.074230
0.744000,0.116623
0.745000,0.259277
0.746000,0.315562
0.747000,0.306505
0.748000,0.240192
0.749000,0.125680
0.750000,-0.047381
0.751000,-0.222707
0.752000,-0.300665
0.753000,-0.348217
0.754000,-0.362450
0.755000,-0.355333
0.756000,-0.332366
0.757000,-0.293872
0.758000,-0.239204
0.759000,-0.167068
0.760000,-0.014063
0.761000,0.168056
0.762000,0.297771
0.763000,0.313621
0.764000,0.299712
0.765000,0.220136
0.766000,0.054515
0.767000,-0.106901
0.768000,-0.258289
0.769000,-0.318133
0.770000,-0.356950
0.771000,-0.360832
0.772000,-0.348540
0.773000,-0.319427
0.774000,-0.276728
0.775000,-0.218178
0.776000,-0.134073
0.777000,0.065513
0.778000,0.217548
0.779000,0.313298
0.780000,0.312004
0.781000,0.277068
0.782000,0.174849
0.783000,0.010522
0.784000,-0.179684
0.785000,-0.275757
0.786000,-0.335924
0.787000,-0.363744
0.788000,-0.359215
0.789000,-0.344658
0.790000,-0.310046
0.791000,-0.252790
0.792000,-0.197475
0.793000,-0.070348
0.794000,0.121475
0.795000,0.260571
0.796000,0.315562
0.797000,0.305534
0.798000,0.239868
0.799000,0.124386
0.800000,-0.050292
0.801000,-0.224324
0.802000,-0.304223
0.803000,-0.349834
0.804000,-0.362126
0.805000,-0.357274
0.806000,-0.332043
0.807000,-0.293872
0.808000,-0.238557
0.809000,-0.166421
0.810000,-0.014063
0.811000,0.169997
0.812000,0.295183
0.813000,0.317827
0.814000,0.300682
0.815000,0.215607
0.816000,0.051927
0.817000,-0.110460
0.818000,-0.256025
0.819000,-0.320397
0.820000,-0.356627
0.821000,-0.360832
0.822000,-0.350481
0.823000,-0.317486
0.824000,-0.276404
0.825000,-0.219795
0.826000,-0.136338
0.827000,0.067130
0.828000,0.218195
0.829000,0.312651
0.830000,0.311034
0.831000,0.274481
0.832000,0.172585
0.833000,0.008581
0.834000,-0.180007
0.835000,-0.276404
0.836000,-0.335601
0.837000,-0.361803
0.838000,-0.358244
0.839000,-0.344335
0.840000,-0.309723
0.841000,-0.252790
0.842000,-0.197152
0.843000,-0.070672
0.844000,0.120181
0.845000,0.261541
0.846000,0.314268
0.847000,0.304888
0.848000,0.238574
0.849000,0.122769
0.850000,-0.051910
0.851000,-0.223677
0.852000,-0.303576
0.853000,-0.350804
0.854000,-0.360185
0.855000,-0.354039
0.856000,-0.332690
0.857000,-0.293549
0.858000,-0.237587
0.859000,-0.165127
0.860000,-0.007593
0.861000,0.172261
0.862000,0.296477
0.863000,0.316209
0.864000,0.298094
0.865000,0.217548
0.866000,-0.308105
0.867000,-0.285138
0.868000,-0.269611
0.869000,-0.260554
0.870000,-0.254084
0.871000,-0.248909
0.872000,-0.244380
0.873000,-0.241792
0.874000,-0.239528
0.875000,-0.238557
0.876000,-0.239851
0.877000,-0.245674
0.878000,-0.250849
0.879000,-0.253761
0.880000,-0.253114
0.881000,-0.251173
0.882000,-0.245027
0.883000,-0.236293
0.884000,-0.227235
0.885000,-0.222383
0.886000,-0.217531
0.887000,-0.213973
0.888000,-0.211061
0.889000,-0.209444
0.890000,-0.208797
0.891000,-0.207827
0.892000,-0.209121
0.893000,-0.213326
0.894000,-0.221089
0.895000,-0.228206
0.896000,-0.231764
0.897000,-0.232088
0.898000,-0.229823
0.899000,-0.224648
0.900000,-0.216561
0.901000,-0.208797
0.902000,-0.204592
0.903000,-0.201357
0.904000,-0.198122
0.905000,-0.195858
0.906000,-0.194564
0.907000,-0.194241
0.908000,-0.194888
0.909000,-0.196505
0.910000,-0.202004
0.911000,-0.210738
0.912000,-0.216884
0.913000,-0.220119
0.914000,-0.221089
0.915000,-0.217855
0.916000,-0.210738
0.917000,-0.204592
0.918000,-0.197475
0.919000,-0.194241
0.920000,-0.190359
0.921000,-0.188094
0.922000,-0.185830
0.923000,-0.184536
0.924000,-0.184860
0.925000,-0.185830
0.926000,-0.188741
0.927000,-0.197799
0.928000,-0.204592
0.929000,-0.209444
0.930000,-0.212679
0.931000,-0.212032
0.932000,-0.207827
0.933000,-0.201681
0.934000,-0.193594
0.935000,-0.188741
0.936000,-0.185507
0.937000,-0.182272
0.938000,-0.179361
0.939000,-0.178067
0.940000,-0.178067
0.941000,-0.178067
0.942000,-0.179361
0.943000,-0.184213
0.944000,-0.192947
0.945000,-0.200063
0.946000,-0.204592
0.947000,-0.207180
0.948000,-0.205886
0.949000,-0.200710
0.950000,-0.193270
0.951000,-0.186154
0.952000,-0.181301
0.953000,-0.179037
0.954000,-0.176449
0.955000,-0.174185
0.956000,-0.172891
0.957000,-0.172244
0.958000,-0.173538
0.959000,-0.175479
0.960000,-0.182272
0.961000,-0.190359
0.962000,-0.197475
0.963000,-0.200710
0.964000,-0.202328
0.965000,-0.199416
0.966000,-0.192947
0.967000,-0.185830
0.968000,-0.179037
0.969000,-0.176126
0.970000,-0.172567
0.971000,-0.170950
0.972000,-0.169009
0.973000,-0.167392
0.974000,-0.168039
0.975000,-0.169009
0.976000,-0.171921
0.977000,-0.180654
0.978000,-0.188094
0.979000,-0.194241
0.980000,-0.196828
0.981000,-0.197475
0.982000,-0.193594
0.983000,-0.186801
0.984000,-0.178714
0.985000,-0.174508
